File: Experiments/Lab Data/8.8.22/DPV/csv/Bare Electrode/Bare Fe3+_SPGE1.bin.csv
8-Jun, 2022   14:16:24,,,,,,,,,,
Differential Pulse Voltammetry,,,,,,,,,,,
File: e:\bare electrode\bare fe3+_spge1.bin.csv,,,,,,,,,,,
Data Source:  Experiment,,,,,,,,,,,
Instrument Model:  CHI650E,,,,,,,,,,,
Data Proc:  Smoothing,,,,,,,,,,,
Header: ,,,,,,,,,,,
Note: ,,,,,,,,,,,
,,,,,,,,,,,
Init E (V) = -0.15,,,,,,,,,,,
Final E (V) = 0.35,,,,,,,,,,,
Incr E (V) = 0.004,,,,,,,,,,,
Amplitude (V) = 0.05,,,,,,,,,,,
Pulse Width (sec) = 0.05,,,,,,,,,,,
Sample Width (sec) = 0.0167,,,,,,,,,,,
Pulse Period (sec) = 0.5,,,,,,,,,,,
Quiet Time (sec) = 10,,,,,,,,,,,
Sensitivity (A/V) = 0.001,,,,,,,,,,,
,,,,,,,,,,,
Ep = 0.078V,,,,,,,,,,,
ip = -6.780e-6A,,,,,,,,,,,
Ap = -1.158e-6VA,,,,,,,,,,,
,,,,,,,,,,,
Potential/V, Current/A,,,,,,,,,,
,,,,,,,,,,,
-0.146,-2.07E-06,-2.75E-06,-2.83E-06,-2.48E-06,-2.87E-06,-2.78E-06,-1.85E-06,-2.03E-06,-2.96E-06,-2.85E-06,-2.55E-06
-0.138,-2.03E-06,-2.64E-06,-2.72E-06,-2.44E-06,-2.79E-06,-2.70E-06,-1.76E-06,-1.95E-06,-2.87E-06,-2.78E-06,-2.47E-06
-0.13,-2.01E-06,-2.59E-06,-2.65E-06,-2.41E-06,-2.73E-06,-2.64E-06,-1.71E-06,-1.89E-06,-2.81E-06,-2.73E-06,-2.42E-06
-0.122,-1.98E-06,-2.56E-06,-2.61E-06,-2.37E-06,-2.69E-06,-2.62E-06,-1.70E-06,-1.84E-06,-2.78E-06,-2.72E-06,-2.39E-06
-0.114,-1.97E-06,-2.53E-06,-2.58E-06,-2.34E-06,-2.66E-06,-2.62E-06,-1.71E-06,-1.79E-06,-2.77E-06,-2.73E-06,-2.37E-06
-0.106,-1.97E-06,-2.50E-06,-2.55E-06,-2.32E-06,-2.65E-06,-2.64E-06,-1.72E-06,-1.74E-06,-2.75E-06,-2.73E-06,-2.36E-06
-0.098,-1.98E-06,-2.48E-06,-2.53E-06,-2.31E-06,-2.65E-06,-2.66E-06,-1.75E-06,-1.69E-06,-2.73E-06,-2.74E-06,-2.35E-06
-0.09,-2.00E-06,-2.47E-06,-2.52E-06,-2.31E-06,-2.66E-06,-2.69E-06,-1.81E-06,-1.66E-06,-2.76E-06,-2.79E-06,-2.37E-06
-0.082,-2.03E-06,-2.48E-06,-2.54E-06,-2.33E-06,-2.69E-06,-2.74E-06,-1.88E-06,-1.64E-06,-2.81E-06,-2.87E-06,-2.40E-06
-0.074,-2.08E-06,-2.50E-06,-2.56E-06,-2.35E-06,-2.74E-06,-2.83E-06,-1.96E-06,-1.64E-06,-2.86E-06,-2.97E-06,-2.45E-06
-0.066,-2.15E-06,-2.53E-06,-2.60E-06,-2.38E-06,-2.80E-06,-2.94E-06,-2.08E-06,-1.64E-06,-2.93E-06,-3.10E-06,-2.51E-06
-0.058,-2.26E-06,-2.57E-06,-2.64E-06,-2.44E-06,-2.86E-06,-3.07E-06,-2.21E-06,-1.67E-06,-3.02E-06,-3.24E-06,-2.60E-06
-0.05,-2.43E-06,-2.66E-06,-2.75E-06,-2.57E-06,-2.98E-06,-3.24E-06,-2.41E-06,-1.72E-06,-3.18E-06,-3.43E-06,-2.74E-06
-0.042,-2.64E-06,-2.80E-06,-2.90E-06,-2.73E-06,-3.15E-06,-3.49E-06,-2.63E-06,-1.80E-06,-3.38E-06,-3.69E-06,-2.92E-06
-0.034,-2.88E-06,-2.96E-06,-3.07E-06,-2.93E-06,-3.34E-06,-3.79E-06,-2.88E-06,-1.91E-06,-3.61E-06,-3.99E-06,-3.14E-06
-0.026,-3.16E-06,-3.14E-06,-3.27E-06,-3.15E-06,-3.56E-06,-4.16E-06,-3.20E-06,-2.04E-06,-3.88E-06,-4.36E-06,-3.39E-06
-0.018,-3.49E-06,-3.36E-06,-3.52E-06,-3.43E-06,-3.81E-06,-4.58E-06,-3.58E-06,-2.20E-06,-4.19E-06,-4.78E-06,-3.69E-06
-0.01,-3.87E-06,-3.59E-06,-3.77E-06,-3.75E-06,-4.09E-06,-5.08E-06,-4.01E-06,-2.37E-06,-4.52E-06,-5.27E-06,-4.03E-06
-0.002,-4.31E-06,-3.85E-06,-4.04E-06,-4.10E-06,-4.40E-06,-5.66E-06,-4.46E-06,-2.59E-06,-4.89E-06,-5.82E-06,-4.41E-06
0.006,-4.82E-06,-4.15E-06,-4.33E-06,-4.49E-06,-4.73E-06,-6.28E-06,-4.89E-06,-2.83E-06,-5.31E-06,-6.40E-06,-4.82E-06
0.014,-5.36E-06,-4.48E-06,-4.64E-06,-4.94E-06,-5.09E-06,-6.93E-06,-5.29E-06,-3.08E-06,-5.74E-06,-7.03E-06,-5.26E-06
0.022,-5.92E-06,-4.81E-06,-4.95E-06,-5.40E-06,-5.45E-06,-7.61E-06,-5.68E-06,-3.33E-06,-6.19E-06,-7.69E-06,-5.70E-06
0.03,-6.44E-06,-5.12E-06,-5.22E-06,-5.86E-06,-5.76E-06,-8.26E-06,-6.10E-06,-3.55E-06,-6.60E-06,-8.32E-06,-6.12E-06
0.038,-6.92E-06,-5.40E-06,-5.43E-06,-6.28E-06,-6.03E-06,-8.87E-06,-6.58E-06,-3.75E-06,-6.94E-06,-8.88E-06,-6.51E-06
0.046,-7.35E-06,-5.64E-06,-5.60E-06,-6.65E-06,-6.27E-06,-9.42E-06,-7.16E-06,-3.94E-06,-7.23E-06,-9.37E-06,-6.86E-06
0.054,-7.73E-06,-5.82E-06,-5.72E-06,-6.96E-06,-6.46E-06,-9.89E-06,-7.79E-06,-4.09E-06,-7.48E-06,-9.75E-06,-7.17E-06
0.062,-8.04E-06,-5.95E-06,-5.80E-06,-7.22E-06,-6.58E-06,-1.03E-05,-8.34E-06,-4.21E-06,-7.67E-06,-1.00E-05,-7.41E-06
0.07,-8.20E-06,-6.03E-06,-5.84E-06,-7.37E-06,-6.66E-06,-1.04E-05,-8.82E-06,-4.29E-06,-7.80E-06,-1.01E-05,-7.56E-06
0.078,-8.24E-06,-6.05E-06,-5.85E-06,-7.39E-06,-6.69E-06,-1.04E-05,-9.22E-06,-4.33E-06,-7.82E-06,-1.01E-05,-7.62E-06
0.086,-8.17E-06,-6.04E-06,-5.83E-06,-7.31E-06,-6.66E-06,-1.03E-05,-9.50E-06,-4.33E-06,-7.75E-06,-9.98E-06,-7.58E-06
0.094,-8.00E-06,-6.00E-06,-5.78E-06,-7.13E-06,-6.56E-06,-9.97E-06,-9.62E-06,-4.29E-06,-7.61E-06,-9.70E-06,-7.47E-06
0.102,-7.75E-06,-5.91E-06,-5.73E-06,-6.89E-06,-6.42E-06,-9.60E-06,-9.55E-06,-4.21E-06,-7.40E-06,-9.32E-06,-7.28E-06
0.11,-7.42E-06,-5.79E-06,-5.64E-06,-6.58E-06,-6.24E-06,-9.13E-06,-9.46E-06,-4.09E-06,-7.14E-06,-8.84E-06,-7.03E-06
0.118,-7.05E-06,-5.65E-06,-5.55E-06,-6.23E-06,-6.03E-06,-8.58E-06,-9.35E-06,-3.95E-06,-6.82E-06,-8.28E-06,-6.75E-06
0.126,-6.65E-06,-5.50E-06,-5.45E-06,-5.85E-06,-5.80E-06,-7.97E-06,-9.05E-06,-3.78E-06,-6.47E-06,-7.69E-06,-6.42E-06
0.134,-6.24E-06,-5.34E-06,-5.35E-06,-5.45E-06,-5.55E-06,-7.32E-06,-8.66E-06,-3.58E-06,-6.10E-06,-7.05E-06,-6.06E-06
0.142,-5.83E-06,-5.15E-06,-5.22E-06,-5.03E-06,-5.30E-06,-6.64E-06,-8.22E-06,-3.36E-06,-5.71E-06,-6.43E-06,-5.69E-06
0.15,-5.43E-06,-4.95E-06,-5.09E-06,-4.60E-06,-5.07E-06,-5.98E-06,-7.76E-06,-3.13E-06,-5.29E-06,-5.83E-06,-5.31E-06
0.158,-5.04E-06,-4.73E-06,-4.94E-06,-4.19E-06,-4.80E-06,-5.37E-06,-7.31E-06,-2.92E-06,-4.89E-06,-5.27E-06,-4.94E-06
0.166,-4.68E-06,-4.49E-06,-4.76E-06,-3.80E-06,-4.50E-06,-4.78E-06,-6.88E-06,-2.70E-06,-4.48E-06,-4.76E-06,-4.58E-06
0.174,-4.35E-06,-4.23E-06,-4.55E-06,-3.43E-06,-4.20E-06,-4.23E-06,-6.47E-06,-2.48E-06,-4.07E-06,-4.27E-06,-4.23E-06
0.182,-4.04E-06,-3.96E-06,-4.30E-06,-3.10E-06,-3.89E-06,-3.73E-06,-6.09E-06,-2.27E-06,-3.68E-06,-3.81E-06,-3.89E-06
0.19,-3.72E-06,-3.67E-06,-4.02E-06,-2.81E-06,-3.58E-06,-3.26E-06,-5.75E-06,-2.06E-06,-3.30E-06,-3.38E-06,-3.55E-06
0.198,-3.42E-06,-3.37E-06,-3.73E-06,-2.52E-06,-3.26E-06,-2.84E-06,-5.43E-06,-1.87E-06,-2.93E-06,-3.00E-06,-3.24E-06
0.206,-3.14E-06,-3.07E-06,-3.42E-06,-2.26E-06,-2.96E-06,-2.48E-06,-5.11E-06,-1.70E-06,-2.60E-06,-2.66E-06,-2.94E-06
0.214,-2.85E-06,-2.78E-06,-3.09E-06,-2.03E-06,-2.67E-06,-2.15E-06,-4.82E-06,-1.54E-06,-2.31E-06,-2.34E-06,-2.66E-06
0.222,-2.58E-06,-2.50E-06,-2.79E-06,-1.83E-06,-2.41E-06,-1.87E-06,-4.56E-06,-1.41E-06,-2.04E-06,-2.07E-06,-2.41E-06
0.23,-2.35E-06,-2.24E-06,-2.49E-06,-1.65E-06,-2.16E-06,-1.63E-06,-4.29E-06,-1.30E-06,-1.81E-06,-1.83E-06,-2.17E-06
0.238,-2.11E-06,-2.01E-06,-2.21E-06,-1.49E-06,-1.93E-06,-1.42E-06,-4.02E-06,-1.20E-06,-1.61E-06,-1.62E-06,-1.96E-06
0.246,-1.88E-06,-1.81E-06,-1.97E-06,-1.37E-06,-1.74E-06,-1.24E-06,-3.74E-06,-1.13E-06,-1.43E-06,-1.44E-06,-1.77E-06
0.254,-1.68E-06,-1.62E-06,-1.76E-06,-1.24E-06,-1.57E-06,-1.09E-06,-3.45E-06,-1.07E-06,-1.28E-06,-1.29E-06,-1.61E-06
0.262,-1.51E-06,-1.45E-06,-1.58E-06,-1.15E-06,-1.42E-06,-9.79E-07,-3.17E-06,-1.01E-06,-1.16E-06,-1.16E-06,-1.46E-06
0.27,-1.35E-06,-1.31E-06,-1.41E-06,-1.06E-06,-1.29E-06,-8.87E-07,-2.88E-06,-9.70E-07,-1.05E-06,-1.06E-06,-1.33E-06
0.278,-1.22E-06,-1.19E-06,-1.27E-06,-9.86E-07,-1.18E-06,-8.10E-07,-2.61E-06,-9.30E-07,-9.66E-07,-9.71E-07,-1.21E-06
0.286,-1.10E-06,-1.09E-06,-1.16E-06,-9.30E-07,-1.09E-06,-7.49E-07,-2.37E-06,-8.90E-07,-8.99E-07,-9.01E-07,-1.12E-06
0.294,-1.00E-06,-1.01E-06,-1.08E-06,-8.80E-07,-1.01E-06,-7.06E-07,-2.12E-06,-8.53E-07,-8.46E-07,-8.50E-07,-1.03E-06
0.302,-9.15E-07,-9.35E-07,-1.01E-06,-8.35E-07,-9.57E-07,-6.64E-07,-1.90E-06,-8.24E-07,-8.11E-07,-8.12E-07,-9.66E-07
0.31,-8.49E-07,-8.87E-07,-9.53E-07,-7.96E-07,-9.05E-07,-6.37E-07,-1.70E-06,-8.03E-07,-7.84E-07,-7.63E-07,-9.08E-07
0.318,-7.99E-07,-8.58E-07,-9.09E-07,-7.69E-07,-8.66E-07,-6.22E-07,-1.54E-06,-7.75E-07,-7.62E-07,-7.31E-07,-8.63E-07
0.326,-7.61E-07,-8.18E-07,-8.77E-07,-7.53E-07,-8.34E-07,-6.15E-07,-1.41E-06,-7.56E-07,-7.48E-07,-7.30E-07,-8.30E-07
0.334,-7.23E-07,-7.96E-07,-8.60E-07,-7.40E-07,-8.08E-07,-6.19E-07,-1.30E-06,-7.42E-07,-7.35E-07,-7.19E-07,-8.04E-07
0.342,-6.99E-07,-7.86E-07,-8.46E-07,-7.23E-07,-7.98E-07,-6.09E-07,-1.22E-06,-7.27E-07,-7.30E-07,-7.15E-07,-7.86E-07
0.35,-6.87E-07,-7.77E-07,-8.43E-07,-7.17E-07,-7.73E-07,-5.96E-07,-1.16E-06,-7.10E-07,-7.34E-07,-7.14E-07,-7.71E-07